# Desmeared data
# Measured on 24.11.2014 15:24:53
# Sample: 
# Thickness [mm]: 1.00 
# Temperature setpoint [C]: 0.0
# Temperature average [C]: 0.0
#q[1/Angstrom]	intensity[e/nm^3]	sigma(intensity)
4.589986E-3	-3.120890E+5	3.943330E+4
5.609986E-3	-1.315640E+5	4.064560E+4
6.629954E-3	1.154550E+5	4.077380E+4
7.649967E-3	2.316430E+5	3.587800E+4
8.669979E-3	1.448270E+5	2.970720E+4
9.689991E-3	1.112540E+5	2.596580E+4
1.071000E-2	7.852780E+4	2.315120E+4
1.172995E-2	5.660520E+4	2.113360E+4
1.274997E-2	5.424550E+4	1.978470E+4
1.376998E-2	4.412010E+4	1.849130E+4
1.478999E-2	3.844660E+4	1.761030E+4
1.580994E-2	4.107080E+4	1.687300E+4
1.682995E-2	4.183750E+4	1.626890E+4
1.784996E-2	3.833380E+4	1.569550E+4
1.886998E-2	3.928620E+4	1.543750E+4
1.988993E-2	3.562340E+4	1.598790E+4
2.243996E-2	2.984660E+4	6.741360E+3
2.651994E-2	4.133710E+4	6.265960E+3
3.059993E-2	4.032570E+4	5.687640E+3
3.467992E-2	4.419460E+4	5.263390E+3
3.875990E-2	4.297140E+4	4.778740E+3
4.283989E-2	4.257710E+4	4.359110E+3
4.691987E-2	3.702870E+4	3.873050E+3
5.099986E-2	3.017680E+4	3.396110E+3
5.507985E-2	2.514730E+4	2.992560E+3
5.915983E-2	1.846590E+4	2.575230E+3
6.323963E-2	1.540770E+4	2.301200E+3
6.731993E-2	1.126780E+4	2.002880E+3
7.139960E-2	8.643080E+3	1.770690E+3
7.547991E-2	6.690550E+3	1.572340E+3
7.955958E-2	5.849200E+3	1.434100E+3
8.363988E-2	4.415320E+3	1.276210E+3
8.771955E-2	3.278050E+3	1.154670E+3
9.179985E-2	1.588310E+3	1.028760E+3
9.587952E-2	2.076470E+3	9.888780E+2
9.995982E-2	1.966600E+3	9.538860E+2
1.040395E-1	1.273970E+3	8.528650E+2
1.081198E-1	8.742520E+2	8.282260E+2
1.121995E-1	6.385370E+2	7.640760E+2
1.162798E-1	9.885360E+2	7.465160E+2
1.203594E-1	5.821440E+2	7.281880E+2
1.244397E-1	3.980880E+2	6.880380E+2
1.285194E-1	5.965110E+2	6.904530E+2
1.325997E-1	5.579490E+2	6.647430E+2
1.366794E-1	1.706370E+2	6.418790E+2
1.407597E-1	7.857030E+2	6.444190E+2
1.448394E-1	7.461210E+2	6.358600E+2
1.499394E-1	4.270000E+2	4.886070E+2
1.560599E-1	1.867780E+2	4.387840E+2
1.621797E-1	4.127400E+2	4.558660E+2
1.682995E-1	2.219390E+2	4.303550E+2
1.744193E-1	1.307030E+2	4.144160E+2
1.805398E-1	2.527490E+2	4.180090E+2
1.866596E-1	5.530920E+1	3.974450E+2
1.927794E-1	5.846360E+2	4.115830E+2
1.988993E-1	1.309970E+2	3.726440E+2
2.050197E-1	1.622870E+2	3.686760E+2
2.111395E-1	1.185530E+2	3.592950E+2
2.172594E-1	3.873410E+1	3.512760E+2
2.233798E-1	2.517820E+2	3.545400E+2
2.294996E-1	2.935570E+2	3.475550E+2
2.356194E-1	9.895850E+1	3.282240E+2
2.417393E-1	2.950430E+2	3.481340E+2
2.478597E-1	4.688070E+1	3.220820E+2
2.539795E-1	2.979740E+2	3.365520E+2
2.600994E-1	8.905490E+1	3.294560E+2
2.662192E-1	-1.330980E+1	3.148080E+2
