# Desmeared data
# Measured on 24.11.2014 14:21:21
# Sample: 
# Thickness [mm]: 1.00 
# Temperature setpoint [C]: 0.0
# Temperature average [C]: 0.0
#q[1/Angstrom]	intensity[e/nm^3]	sigma(intensity)
4.589986E-3	-2.049030E+5	3.682430E+4
5.609986E-3	-8.978280E+4	3.777300E+4
6.629954E-3	3.820340E+4	3.736460E+4
7.649967E-3	1.030380E+5	3.207730E+4
8.669979E-3	6.094210E+4	2.629620E+4
9.689991E-3	4.714220E+4	2.287110E+4
1.071000E-2	2.996310E+4	2.028650E+4
1.172995E-2	3.124890E+4	1.868480E+4
1.274997E-2	2.382790E+4	1.731320E+4
1.376998E-2	1.582080E+4	1.611910E+4
1.478999E-2	1.370080E+4	1.535320E+4
1.580994E-2	2.537070E+4	1.485250E+4
1.682995E-2	1.307140E+4	1.410860E+4
1.784996E-2	6.974330E+3	1.359100E+4
1.886998E-2	1.760760E+4	1.360310E+4
1.988993E-2	1.538060E+4	1.414150E+4
2.243996E-2	1.363820E+4	5.998520E+3
2.651994E-2	1.665780E+4	5.532170E+3
3.059993E-2	1.896950E+4	5.152420E+3
3.467992E-2	2.550270E+4	4.908130E+3
3.875990E-2	2.696600E+4	4.568520E+3
4.283989E-2	3.061070E+4	4.314960E+3
4.691987E-2	2.900980E+4	3.946760E+3
5.099986E-2	2.959320E+4	3.654280E+3
5.507985E-2	2.444360E+4	3.246780E+3
5.915983E-2	2.128520E+4	2.920350E+3
6.323963E-2	1.678190E+4	2.603380E+3
6.731993E-2	1.399010E+4	2.331920E+3
7.139960E-2	1.271640E+4	2.118760E+3
7.547991E-2	9.602820E+3	1.860180E+3
7.955958E-2	7.650560E+3	1.660180E+3
8.363988E-2	5.985200E+3	1.482510E+3
8.771955E-2	4.177730E+3	1.323810E+3
9.179985E-2	2.512570E+3	1.186100E+3
9.587952E-2	3.299080E+3	1.148810E+3
9.995982E-2	2.290720E+3	1.055810E+3
1.040395E-1	1.719140E+3	9.621270E+2
1.081198E-1	1.344420E+3	9.217770E+2
1.121995E-1	1.608210E+3	8.802930E+2
1.162798E-1	9.824880E+2	7.947500E+2
1.203594E-1	7.331470E+2	7.796010E+2
1.244397E-1	9.189840E+2	7.545040E+2
1.285194E-1	7.254550E+2	7.279700E+2
1.325997E-1	3.314500E+2	6.712620E+2
1.366794E-1	4.517080E+2	6.836310E+2
1.407597E-1	5.535000E+2	6.520500E+2
1.448394E-1	3.985330E+2	6.442420E+2
1.499394E-1	2.001110E+2	5.049180E+2
1.560599E-1	4.407430E+2	4.883480E+2
1.621797E-1	6.068490E+2	4.984050E+2
1.682995E-1	1.500110E+2	4.485380E+2
1.744193E-1	3.467350E+2	4.542210E+2
1.805398E-1	2.616120E+2	4.381690E+2
1.866596E-1	7.920480E+1	4.215870E+2
1.927794E-1	4.936620E+2	4.264070E+2
1.988993E-1	2.861810E+2	4.082170E+2
2.050197E-1	1.815730E+2	3.888210E+2
2.111395E-1	3.604280E+2	3.927050E+2
2.172594E-1	1.574500E+2	3.709710E+2
2.233798E-1	2.248990E+2	3.597180E+2
2.294996E-1	3.790680E+2	3.577570E+2
2.356194E-1	1.254310E+2	3.374880E+2
2.417393E-1	-4.745310E+0	3.280130E+2
2.478597E-1	2.431980E+2	3.473790E+2
2.539795E-1	1.222980E+2	3.324080E+2
2.600994E-1	-1.269490E+0	3.347100E+2
2.662192E-1	6.236730E+1	3.345250E+2
