# Desmeared data
# Measured on 24.11.2014 13:54:34
# Sample: 
# Thickness [mm]: 1.00 
# Temperature setpoint [C]: 0.0
# Temperature average [C]: 0.0
#q[1/Angstrom]	intensity[e/nm^3]	sigma(intensity)
4.589986E-3	-1.033860E+5	3.510630E+4
5.609986E-3	3.266700E+4	3.559370E+4
6.629954E-3	1.515130E+5	3.479160E+4
7.649967E-3	8.693730E+4	2.810150E+4
8.669979E-3	5.023980E+4	2.257870E+4
9.689991E-3	3.499000E+4	1.923540E+4
1.071000E-2	2.878010E+4	1.693930E+4
1.172995E-2	1.786820E+4	1.526180E+4
1.274997E-2	1.292210E+4	1.403500E+4
1.376998E-2	2.060200E+4	1.316660E+4
1.478999E-2	1.315230E+4	1.239680E+4
1.580994E-2	9.331380E+3	1.167210E+4
1.682995E-2	1.561580E+4	1.134020E+4
1.784996E-2	1.015360E+4	1.084410E+4
1.886998E-2	1.033130E+4	1.062690E+4
1.988993E-2	1.291050E+4	1.107420E+4
2.243996E-2	7.111610E+3	4.639870E+3
2.651994E-2	1.236950E+4	4.315450E+3
3.059993E-2	9.184670E+3	3.925650E+3
3.467992E-2	1.082280E+4	3.704660E+3
3.875990E-2	1.412850E+4	3.531030E+3
4.283989E-2	1.628640E+4	3.362430E+3
4.691987E-2	1.713910E+4	3.155490E+3
5.099986E-2	1.835160E+4	2.967490E+3
5.507985E-2	1.741710E+4	2.730780E+3
5.915983E-2	1.569440E+4	2.495610E+3
6.323963E-2	1.376880E+4	2.282020E+3
6.731993E-2	1.239680E+4	2.089890E+3
7.139960E-2	9.491210E+3	1.860970E+3
7.547991E-2	8.341950E+3	1.702490E+3
7.955958E-2	6.593460E+3	1.539910E+3
8.363988E-2	5.505190E+3	1.408810E+3
8.771955E-2	4.661960E+3	1.295670E+3
9.179985E-2	3.723840E+3	1.199120E+3
9.587952E-2	3.202360E+3	1.101110E+3
9.995982E-2	2.742880E+3	1.037160E+3
1.040395E-1	2.385910E+3	9.568110E+2
1.081198E-1	1.394620E+3	8.883670E+2
1.121995E-1	1.610090E+3	8.431240E+2
1.162798E-1	1.455030E+3	7.906190E+2
1.203594E-1	7.281650E+2	7.481810E+2
1.244397E-1	9.578020E+2	7.301680E+2
1.285194E-1	9.835760E+2	7.097130E+2
1.325997E-1	1.042470E+3	6.802630E+2
1.366794E-1	3.910550E+2	6.370060E+2
1.407597E-1	5.429370E+2	6.120670E+2
1.448394E-1	4.793290E+2	6.082840E+2
1.499394E-1	4.697370E+2	4.853640E+2
1.560599E-1	2.903370E+2	4.431250E+2
1.621797E-1	4.363200E+2	4.506860E+2
1.682995E-1	4.053430E+2	4.342290E+2
1.744193E-1	2.591470E+2	4.131450E+2
1.805398E-1	2.396660E+2	4.016370E+2
1.866596E-1	1.327300E+2	3.922990E+2
1.927794E-1	3.360360E+2	3.831270E+2
1.988993E-1	1.966970E+2	3.704500E+2
2.050197E-1	2.390670E+2	3.685800E+2
2.111395E-1	3.421850E+1	3.471980E+2
2.172594E-1	1.772710E+2	3.539930E+2
2.233798E-1	4.366320E+2	3.567830E+2
2.294996E-1	3.222690E+2	3.331060E+2
2.356194E-1	1.497560E+2	3.192120E+2
2.417393E-1	9.647470E+1	3.186950E+2
2.478597E-1	1.176020E+2	3.185890E+2
2.539795E-1	1.965700E+2	3.217710E+2
2.600994E-1	1.212450E+2	3.209400E+2
2.662192E-1	3.400390E+2	3.276480E+2
