# Desmeared data
# Measured on 24.11.2014 14:42:53
# Sample: 
# Thickness [mm]: 1.00 
# Temperature setpoint [C]: 0.0
# Temperature average [C]: 0.0
#q[1/Angstrom]	intensity[e/nm^3]	sigma(intensity)
4.589986E-3	-2.375190E+5	3.810250E+4
5.609986E-3	-1.058060E+5	3.894480E+4
6.629954E-3	4.441530E+4	3.861770E+4
7.649967E-3	9.169540E+4	3.322860E+4
8.669979E-3	7.420490E+4	2.797210E+4
9.689991E-3	5.986820E+4	2.459460E+4
1.071000E-2	4.618100E+4	2.213200E+4
1.172995E-2	3.394170E+4	2.035560E+4
1.274997E-2	3.218000E+4	1.910410E+4
1.376998E-2	3.578250E+4	1.804840E+4
1.478999E-2	3.592800E+4	1.730590E+4
1.580994E-2	2.713050E+4	1.641860E+4
1.682995E-2	3.896810E+4	1.600120E+4
1.784996E-2	3.962530E+4	1.553840E+4
1.886998E-2	2.555100E+4	1.504610E+4
1.988993E-2	3.559450E+4	1.591800E+4
2.243996E-2	3.245080E+4	6.715130E+3
2.651994E-2	3.210630E+4	6.053720E+3
3.059993E-2	4.062120E+4	5.664040E+3
3.467992E-2	4.104170E+4	5.168960E+3
3.875990E-2	4.329200E+4	4.757220E+3
4.283989E-2	3.741160E+4	4.234090E+3
4.691987E-2	3.614590E+4	3.838820E+3
5.099986E-2	2.869970E+4	3.333670E+3
5.507985E-2	2.542500E+4	2.959630E+3
5.915983E-2	1.765630E+4	2.494480E+3
6.323963E-2	1.466730E+4	2.210510E+3
6.731993E-2	1.047860E+4	1.897780E+3
7.139960E-2	7.161400E+3	1.635880E+3
7.547991E-2	5.169060E+3	1.435730E+3
7.955958E-2	4.785000E+3	1.324330E+3
8.363988E-2	3.527580E+3	1.176750E+3
8.771955E-2	2.721240E+3	1.066730E+3
9.179985E-2	1.827240E+3	9.691410E+2
9.587952E-2	1.880260E+3	9.089080E+2
9.995982E-2	7.809510E+2	8.212950E+2
1.040395E-1	7.795020E+2	7.765320E+2
1.081198E-1	4.806680E+2	7.593260E+2
1.121995E-1	1.033710E+3	7.438150E+2
1.162798E-1	8.648600E+2	6.894940E+2
1.203594E-1	2.787840E+2	6.591480E+2
1.244397E-1	4.686070E+2	6.427080E+2
1.285194E-1	6.622520E+2	6.440930E+2
1.325997E-1	4.205640E+2	5.992380E+2
1.366794E-1	7.155920E+1	5.785380E+2
1.407597E-1	5.892990E+2	5.767540E+2
1.448394E-1	5.240250E+2	5.711380E+2
1.499394E-1	1.715740E+2	4.315720E+2
1.560599E-1	2.716170E+2	4.103470E+2
1.621797E-1	1.276680E+2	4.002780E+2
1.682995E-1	1.673070E+2	3.950460E+2
1.744193E-1	8.389110E+1	3.816860E+2
1.805398E-1	1.440390E+2	3.780900E+2
1.866596E-1	1.262540E+2	3.772300E+2
1.927794E-1	3.140830E+2	3.618130E+2
1.988993E-1	3.396080E+2	3.589680E+2
2.050197E-1	1.571930E+2	3.330360E+2
2.111395E-1	-3.226930E+1	3.083310E+2
2.172594E-1	-5.959010E+1	3.111080E+2
2.233798E-1	-5.088060E+0	3.056300E+2
2.294996E-1	2.442260E+2	3.199780E+2
2.356194E-1	1.551030E+2	3.090960E+2
2.417393E-1	2.987450E+2	3.195530E+2
2.478597E-1	2.254160E+2	3.050400E+2
2.539795E-1	1.370750E+2	2.865330E+2
2.600994E-1	4.343830E+1	2.913040E+2
2.662192E-1	-1.603980E+2	2.676890E+2
