# Desmeared data
# Measured on 24.11.2014 15:41:58
# Sample: 
# Thickness [mm]: 1.00 
# Temperature setpoint [C]: 0.0
# Temperature average [C]: 0.0
#q[1/Angstrom]	intensity[e/nm^3]	sigma(intensity)
4.589986E-3	-1.643630E+5	4.378070E+4
5.609986E-3	3.476920E+3	4.370510E+4
6.629954E-3	2.664580E+5	4.337820E+4
7.649967E-3	2.395280E+5	3.677500E+4
8.669979E-3	1.410390E+5	3.032380E+4
9.689991E-3	1.411840E+5	2.692660E+4
1.071000E-2	1.003920E+5	2.385820E+4
1.172995E-2	8.264500E+4	2.182590E+4
1.274997E-2	6.976170E+4	2.022100E+4
1.376998E-2	7.562490E+4	1.903630E+4
1.478999E-2	6.931310E+4	1.801510E+4
1.580994E-2	5.534720E+4	1.693450E+4
1.682995E-2	5.332710E+4	1.623860E+4
1.784996E-2	5.389970E+4	1.571680E+4
1.886998E-2	5.353600E+4	1.531850E+4
1.988993E-2	6.318530E+4	1.605880E+4
2.243996E-2	4.522910E+4	6.602480E+3
2.651994E-2	4.707470E+4	5.885470E+3
3.059993E-2	4.697270E+4	5.252460E+3
3.467992E-2	4.313880E+4	4.631960E+3
3.875990E-2	3.478920E+4	3.991440E+3
4.283989E-2	2.623480E+4	3.424280E+3
4.691987E-2	2.134810E+4	2.978350E+3
5.099986E-2	1.668940E+4	2.580020E+3
5.507985E-2	1.200590E+4	2.205990E+3
5.915983E-2	8.347040E+3	1.896970E+3
6.323963E-2	6.817620E+3	1.706560E+3
6.731993E-2	5.704360E+3	1.539920E+3
7.139960E-2	3.109070E+3	1.320550E+3
7.547991E-2	2.410080E+3	1.208020E+3
7.955958E-2	2.501690E+3	1.147100E+3
8.363988E-2	2.271530E+3	1.070540E+3
8.771955E-2	1.571470E+3	9.782930E+2
9.179985E-2	1.014190E+3	9.156260E+2
9.587952E-2	1.238900E+3	8.738480E+2
9.995982E-2	7.569920E+2	8.258740E+2
1.040395E-1	7.409520E+2	7.750500E+2
1.081198E-1	9.883620E+1	7.449560E+2
1.121995E-1	1.678480E+2	7.033440E+2
1.162798E-1	6.967670E+2	7.147480E+2
1.203594E-1	-1.622120E+2	6.688590E+2
1.244397E-1	4.370370E+2	6.888600E+2
1.285194E-1	4.971390E+2	6.861680E+2
1.325997E-1	3.297120E+2	6.413370E+2
1.366794E-1	5.150620E+2	6.599770E+2
1.407597E-1	2.128840E+2	5.978550E+2
1.448394E-1	2.272480E+2	6.076470E+2
1.499394E-1	1.848420E+1	4.781780E+2
1.560599E-1	1.765770E+2	4.651580E+2
1.621797E-1	3.718060E+2	4.779400E+2
1.682995E-1	3.738670E+2	4.661200E+2
1.744193E-1	8.299050E+1	4.372620E+2
1.805398E-1	2.142840E+2	4.354990E+2
1.866596E-1	3.937400E+2	4.442400E+2
1.927794E-1	2.815900E+2	4.127400E+2
1.988993E-1	-1.031430E+1	3.891320E+2
2.050197E-1	4.038130E+2	4.129070E+2
2.111395E-1	2.902110E+2	3.935260E+2
2.172594E-1	5.404100E+1	3.705250E+2
2.233798E-1	1.920550E+2	3.732280E+2
2.294996E-1	1.737080E+2	3.595590E+2
2.356194E-1	3.744690E+2	3.732910E+2
2.417393E-1	2.941480E+2	3.641730E+2
2.478597E-1	2.333180E+2	3.510150E+2
2.539795E-1	2.702800E+2	3.485910E+2
2.600994E-1	-1.357930E+0	3.335220E+2
2.662192E-1	1.076300E+2	3.412290E+2
